jsa8-2 #4 1
4/26/2018 2:24 PM
Wavelength (nm)	10mm Absorbance
//WLCalib: Shift 	0.09667	
//WLCalib: 261S 	-0.15000	
//WLCalib: 362S 	-0.12000	
//WLCalib: 484S 	0.11000	
//WLCalib: 529S 	0.18000	
//WLCalib: 823S 	-0.47000	
//QSpecEnd: 
190.0	0.022
190.5	0.002
191.0	0.000
191.5	0.025
192.0	0.038
192.5	0.045
193.0	0.045
193.5	0.038
194.0	0.035
194.5	0.028
195.0	0.014
195.5	-0.005
196.0	0.010
196.5	0.013
197.0	0.013
197.5	0.011
198.0	0.008
198.5	0.001
199.0	0.003
199.5	0.000
200.0	-0.003
200.5	-0.005
201.0	-0.005
201.5	-0.005
202.0	-0.003
202.5	-0.001
203.0	0.002
203.5	0.000
204.0	0.000
204.5	0.000
205.0	0.000
205.5	0.000
206.0	0.000
206.5	0.000
207.0	-0.001
207.5	0.000
208.0	0.002
208.5	0.002
209.0	0.003
209.5	0.004
210.0	0.005
210.5	0.004
211.0	0.003
211.5	0.002
212.0	-0.001
212.5	0.001
213.0	0.000
213.5	-0.001
214.0	0.000
214.5	0.000
215.0	0.000
215.5	0.000
216.0	0.000
216.5	-0.001
217.0	0.006
217.5	0.000
218.0	-0.006
218.5	-0.011
219.0	-0.013
219.5	-0.014
220.0	-0.013
220.5	-0.010
221.0	-0.006
221.5	0.000
222.0	0.008
222.5	-0.003
223.0	-0.003
223.5	0.004
224.0	0.011
224.5	0.013
225.0	0.014
225.5	0.013
226.0	0.011
226.5	0.007
227.0	0.002
227.5	-0.007
228.0	-0.002
228.5	0.001
229.0	0.003
229.5	0.004
230.0	-0.001
230.5	-0.005
231.0	-0.008
231.5	-0.010
232.0	-0.007
232.5	-0.010
233.0	-0.010
233.5	-0.021
234.0	-0.003
234.5	0.009
235.0	0.017
235.5	0.019
236.0	0.014
236.5	0.017
237.0	0.018
237.5	0.008
238.0	0.001
238.5	-0.008
239.0	0.002
239.5	0.003
240.0	0.001
240.5	-0.005
241.0	-0.008
241.5	-0.003
242.0	-0.003
242.5	-0.002
243.0	0.000
243.5	-0.003
244.0	-0.005
244.5	-0.003
245.0	0.000
245.5	0.001
246.0	0.002
246.5	0.002
247.0	0.010
247.5	0.000
248.0	-0.009
248.5	-0.013
249.0	-0.016
249.5	-0.024
250.0	-0.029
250.5	-0.031
251.0	-0.028
251.5	-0.020
252.0	-0.008
252.5	-0.026
253.0	-0.013
253.5	0.018
254.0	0.033
254.5	0.041
255.0	0.046
255.5	0.046
256.0	0.040
256.5	0.029
257.0	0.015
257.5	-0.015
258.0	-0.006
258.5	-0.004
259.0	-0.005
259.5	-0.006
260.0	-0.006
260.5	-0.005
261.0	-0.003
261.5	-0.001
262.0	0.002
262.5	-0.005
263.0	-0.003
263.5	0.006
264.0	0.015
264.5	0.012
265.0	0.010
265.5	0.006
266.0	0.003
266.5	-0.002
267.0	-0.007
267.5	-0.014
268.0	-0.008
268.5	0.021
269.0	-0.001
269.5	-0.021
270.0	-0.028
270.5	-0.034
271.0	-0.050
271.5	-0.057
272.0	-0.062
272.5	-0.048
273.0	-0.026
273.5	0.002
274.0	-0.009
274.5	0.001
275.0	0.015
275.5	0.014
276.0	0.006
276.5	0.001
277.0	-0.005
277.5	0.000
278.0	0.000
278.5	0.000
279.0	0.000
279.5	0.000
280.0	-0.002
280.5	-0.009
281.0	0.003
281.5	0.008
282.0	0.016
282.5	0.019
283.0	0.025
283.5	0.070
284.0	0.126
284.5	0.181
285.0	0.250
285.5	0.337
286.0	0.425
286.5	0.474
287.0	0.500
287.5	0.488
288.0	0.477
288.5	0.472
289.0	0.449
289.5	0.432
290.0	0.428
290.5	0.441
291.0	0.440
291.5	0.439
292.0	0.434
292.5	0.427
293.0	0.429
293.5	0.424
294.0	0.426
294.5	0.424
295.0	0.421
295.5	0.417
296.0	0.411
296.5	0.407
297.0	0.403
297.5	0.399
298.0	0.397
298.5	0.395
299.0	0.392
299.5	0.390
300.0	0.388
300.5	0.387
301.0	0.386
301.5	0.385
302.0	0.383
302.5	0.381
303.0	0.379
303.5	0.377
304.0	0.376
304.5	0.374
305.0	0.373
305.5	0.373
306.0	0.373
306.5	0.372
307.0	0.371
307.5	0.369
308.0	0.368
308.5	0.366
309.0	0.365
309.5	0.364
310.0	0.363
310.5	0.363
311.0	0.362
311.5	0.361
312.0	0.359
312.5	0.358
313.0	0.357
313.5	0.356
314.0	0.356
314.5	0.357
315.0	0.356
315.5	0.355
316.0	0.353
316.5	0.352
317.0	0.351
317.5	0.350
318.0	0.350
318.5	0.349
319.0	0.349
319.5	0.348
320.0	0.346
320.5	0.345
321.0	0.343
321.5	0.343
322.0	0.343
322.5	0.343
323.0	0.343
323.5	0.342
324.0	0.342
324.5	0.341
325.0	0.340
325.5	0.339
326.0	0.338
326.5	0.337
327.0	0.336
327.5	0.336
328.0	0.336
328.5	0.335
329.0	0.335
329.5	0.334
330.0	0.334
330.5	0.334
331.0	0.333
331.5	0.333
332.0	0.333
332.5	0.333
333.0	0.333
333.5	0.332
334.0	0.331
334.5	0.330
335.0	0.329
335.5	0.328
336.0	0.327
336.5	0.326
337.0	0.327
337.5	0.327
338.0	0.327
338.5	0.327
339.0	0.326
339.5	0.326
340.0	0.325
340.5	0.325
341.0	0.324
341.5	0.323
342.0	0.323
342.5	0.323
343.0	0.323
343.5	0.323
344.0	0.323
344.5	0.323
345.0	0.323
345.5	0.323
346.0	0.323
346.5	0.323
347.0	0.323
347.5	0.323
348.0	0.322
348.5	0.321
349.0	0.321
349.5	0.320
350.0	0.320
350.5	0.320
351.0	0.320
351.5	0.320
352.0	0.320
352.5	0.320
353.0	0.319
353.5	0.319
354.0	0.318
354.5	0.318
355.0	0.317
355.5	0.317
356.0	0.317
356.5	0.317
357.0	0.317
357.5	0.318
358.0	0.318
358.5	0.317
359.0	0.317
359.5	0.317
360.0	0.316
360.5	0.315
361.0	0.315
361.5	0.316
362.0	0.316
362.5	0.316
363.0	0.316
363.5	0.315
364.0	0.315
364.5	0.315
365.0	0.314
365.5	0.314
366.0	0.314
366.5	0.314
367.0	0.314
367.5	0.313
368.0	0.313
368.5	0.313
369.0	0.313
369.5	0.313
370.0	0.313
370.5	0.313
371.0	0.313
371.5	0.312
372.0	0.311
372.5	0.311
373.0	0.310
373.5	0.310
374.0	0.309
374.5	0.309
375.0	0.309
375.5	0.308
376.0	0.308
376.5	0.308
377.0	0.307
377.5	0.307
378.0	0.307
378.5	0.306
379.0	0.305
379.5	0.305
380.0	0.305
380.5	0.304
381.0	0.304
381.5	0.303
382.0	0.303
382.5	0.303
383.0	0.302
383.5	0.302
384.0	0.301
384.5	0.301
385.0	0.300
385.5	0.299
386.0	0.299
386.5	0.299
387.0	0.299
387.5	0.299
388.0	0.299
388.5	0.299
389.0	0.298
389.5	0.298
390.0	0.297
390.5	0.297
391.0	0.296
391.5	0.296
392.0	0.296
392.5	0.296
393.0	0.295
393.5	0.296
394.0	0.295
394.5	0.295
395.0	0.295
395.5	0.294
396.0	0.294
396.5	0.293
397.0	0.293
397.5	0.292
398.0	0.292
398.5	0.292
399.0	0.292
399.5	0.291
400.0	0.291
400.5	0.291
401.0	0.291
401.5	0.290
402.0	0.290
402.5	0.290
403.0	0.290
403.5	0.289
404.0	0.289
404.5	0.288
405.0	0.288
405.5	0.288
406.0	0.288
406.5	0.287
407.0	0.287
407.5	0.287
408.0	0.287
408.5	0.286
409.0	0.286
409.5	0.286
410.0	0.286
410.5	0.286
411.0	0.286
411.5	0.285
412.0	0.285
412.5	0.285
413.0	0.284
413.5	0.284
414.0	0.284
414.5	0.283
415.0	0.283
415.5	0.283
416.0	0.283
416.5	0.283
417.0	0.283
417.5	0.284
418.0	0.284
418.5	0.284
419.0	0.284
419.5	0.284
420.0	0.284
420.5	0.283
421.0	0.283
421.5	0.284
422.0	0.284
422.5	0.284
423.0	0.283
423.5	0.283
424.0	0.283
424.5	0.283
425.0	0.283
425.5	0.283
426.0	0.283
426.5	0.283
427.0	0.283
427.5	0.283
428.0	0.282
428.5	0.282
429.0	0.282
429.5	0.282
430.0	0.281
430.5	0.281
431.0	0.281
431.5	0.281
432.0	0.281
432.5	0.280
433.0	0.280
433.5	0.280
434.0	0.281
434.5	0.281
435.0	0.281
435.5	0.281
436.0	0.281
436.5	0.282
437.0	0.282
437.5	0.282
438.0	0.282
438.5	0.282
439.0	0.282
439.5	0.281
440.0	0.281
440.5	0.281
441.0	0.281
441.5	0.281
442.0	0.282
442.5	0.282
443.0	0.282
443.5	0.282
444.0	0.283
444.5	0.283
445.0	0.283
445.5	0.282
446.0	0.282
446.5	0.282
447.0	0.282
447.5	0.282
448.0	0.282
448.5	0.283
449.0	0.283
449.5	0.283
450.0	0.283
450.5	0.284
451.0	0.284
451.5	0.284
452.0	0.285
452.5	0.285
453.0	0.285
453.5	0.285
454.0	0.285
454.5	0.285
455.0	0.286
455.5	0.286
456.0	0.287
456.5	0.287
457.0	0.288
457.5	0.288
458.0	0.288
458.5	0.289
459.0	0.289
459.5	0.290
460.0	0.291
460.5	0.291
461.0	0.291
461.5	0.291
462.0	0.291
462.5	0.291
463.0	0.291
463.5	0.292
464.0	0.293
464.5	0.294
465.0	0.294
465.5	0.295
466.0	0.296
466.5	0.296
467.0	0.297
467.5	0.297
468.0	0.297
468.5	0.298
469.0	0.298
469.5	0.298
470.0	0.299
470.5	0.300
471.0	0.300
471.5	0.301
472.0	0.302
472.5	0.303
473.0	0.304
473.5	0.305
474.0	0.306
474.5	0.307
475.0	0.307
475.5	0.308
476.0	0.309
476.5	0.310
477.0	0.311
477.5	0.312
478.0	0.313
478.5	0.314
479.0	0.315
479.5	0.317
480.0	0.318
480.5	0.319
481.0	0.321
481.5	0.322
482.0	0.324
482.5	0.326
483.0	0.328
483.5	0.330
484.0	0.331
484.5	0.332
485.0	0.334
485.5	0.335
486.0	0.337
486.5	0.339
487.0	0.340
487.5	0.342
488.0	0.343
488.5	0.344
489.0	0.346
489.5	0.347
490.0	0.349
490.5	0.351
491.0	0.353
491.5	0.354
492.0	0.356
492.5	0.358
493.0	0.359
493.5	0.361
494.0	0.362
494.5	0.364
495.0	0.366
495.5	0.368
496.0	0.369
496.5	0.371
497.0	0.373
497.5	0.375
498.0	0.377
498.5	0.379
499.0	0.381
499.5	0.383
500.0	0.385
500.5	0.386
501.0	0.388
501.5	0.389
502.0	0.391
502.5	0.392
503.0	0.394
503.5	0.396
504.0	0.397
504.5	0.399
505.0	0.401
505.5	0.404
506.0	0.405
506.5	0.407
507.0	0.409
507.5	0.410
508.0	0.412
508.5	0.414
509.0	0.415
509.5	0.416
510.0	0.417
510.5	0.418
511.0	0.419
511.5	0.420
512.0	0.421
512.5	0.422
513.0	0.423
513.5	0.423
514.0	0.424
514.5	0.424
515.0	0.425
515.5	0.425
516.0	0.426
516.5	0.427
517.0	0.427
517.5	0.427
518.0	0.427
518.5	0.427
519.0	0.427
519.5	0.426
520.0	0.426
520.5	0.425
521.0	0.425
521.5	0.425
522.0	0.425
522.5	0.424
523.0	0.424
523.5	0.423
524.0	0.422
524.5	0.421
525.0	0.420
525.5	0.418
526.0	0.416
526.5	0.414
527.0	0.413
527.5	0.412
528.0	0.410
528.5	0.409
529.0	0.408
529.5	0.407
530.0	0.406
530.5	0.404
531.0	0.402
531.5	0.400
532.0	0.397
532.5	0.395
533.0	0.393
533.5	0.391
534.0	0.388
534.5	0.386
535.0	0.384
535.5	0.382
536.0	0.379
536.5	0.377
537.0	0.374
537.5	0.372
538.0	0.369
538.5	0.367
539.0	0.364
539.5	0.361
540.0	0.359
540.5	0.357
541.0	0.354
541.5	0.352
542.0	0.350
542.5	0.348
543.0	0.346
543.5	0.343
544.0	0.341
544.5	0.338
545.0	0.335
545.5	0.332
546.0	0.329
546.5	0.326
547.0	0.323
547.5	0.321
548.0	0.319
548.5	0.317
549.0	0.314
549.5	0.312
550.0	0.309
550.5	0.305
551.0	0.302
551.5	0.300
552.0	0.297
552.5	0.295
553.0	0.293
553.5	0.291
554.0	0.288
554.5	0.285
555.0	0.283
555.5	0.281
556.0	0.279
556.5	0.277
557.0	0.274
557.5	0.272
558.0	0.269
558.5	0.267
559.0	0.264
559.5	0.262
560.0	0.260
560.5	0.258
561.0	0.256
561.5	0.254
562.0	0.252
562.5	0.250
563.0	0.247
563.5	0.245
564.0	0.243
564.5	0.241
565.0	0.239
565.5	0.236
566.0	0.234
566.5	0.232
567.0	0.231
567.5	0.229
568.0	0.227
568.5	0.225
569.0	0.223
569.5	0.222
570.0	0.220
570.5	0.218
571.0	0.216
571.5	0.214
572.0	0.212
572.5	0.210
573.0	0.208
573.5	0.206
574.0	0.205
574.5	0.203
575.0	0.202
575.5	0.200
576.0	0.199
576.5	0.197
577.0	0.195
577.5	0.193
578.0	0.191
578.5	0.189
579.0	0.187
579.5	0.186
580.0	0.184
580.5	0.183
581.0	0.181
581.5	0.180
582.0	0.179
582.5	0.177
583.0	0.176
583.5	0.175
584.0	0.174
584.5	0.173
585.0	0.172
585.5	0.170
586.0	0.168
586.5	0.167
587.0	0.165
587.5	0.163
588.0	0.162
588.5	0.160
589.0	0.159
589.5	0.158
590.0	0.156
590.5	0.154
591.0	0.154
591.5	0.153
592.0	0.152
592.5	0.151
593.0	0.150
593.5	0.150
594.0	0.149
594.5	0.148
595.0	0.147
595.5	0.145
596.0	0.144
596.5	0.143
597.0	0.141
597.5	0.140
598.0	0.140
598.5	0.139
599.0	0.138
599.5	0.137
600.0	0.136
600.5	0.135
601.0	0.134
601.5	0.134
602.0	0.133
602.5	0.132
603.0	0.131
603.5	0.129
604.0	0.128
604.5	0.126
605.0	0.125
605.5	0.124
606.0	0.124
606.5	0.124
607.0	0.123
607.5	0.123
608.0	0.122
608.5	0.121
609.0	0.120
609.5	0.119
610.0	0.118
610.5	0.118
611.0	0.117
611.5	0.117
612.0	0.116
612.5	0.115
613.0	0.115
613.5	0.114
614.0	0.113
614.5	0.112
615.0	0.111
615.5	0.110
616.0	0.109
616.5	0.109
617.0	0.108
617.5	0.108
618.0	0.107
618.5	0.106
619.0	0.106
619.5	0.105
620.0	0.104
620.5	0.103
621.0	0.103
621.5	0.102
622.0	0.102
622.5	0.102
623.0	0.101
623.5	0.101
624.0	0.100
624.5	0.100
625.0	0.100
625.5	0.099
626.0	0.099
626.5	0.098
627.0	0.098
627.5	0.097
628.0	0.097
628.5	0.096
629.0	0.095
629.5	0.094
630.0	0.093
630.5	0.092
631.0	0.092
631.5	0.092
632.0	0.091
632.5	0.090
633.0	0.090
633.5	0.089
634.0	0.089
634.5	0.089
635.0	0.088
635.5	0.087
636.0	0.087
636.5	0.087
637.0	0.087
637.5	0.087
638.0	0.087
638.5	0.086
639.0	0.086
639.5	0.085
640.0	0.085
640.5	0.083
641.0	0.084
641.5	0.083
642.0	0.083
642.5	0.083
643.0	0.082
643.5	0.081
644.0	0.081
644.5	0.080
645.0	0.080
645.5	0.080
646.0	0.080
646.5	0.080
647.0	0.080
647.5	0.080
648.0	0.080
648.5	0.080
649.0	0.079
649.5	0.079
650.0	0.079
650.5	0.079
651.0	0.078
651.5	0.077
652.0	0.077
652.5	0.076
653.0	0.076
653.5	0.075
654.0	0.075
654.5	0.075
655.0	0.075
655.5	0.075
656.0	0.075
656.5	0.075
657.0	0.075
657.5	0.074
658.0	0.074
658.5	0.073
659.0	0.073
659.5	0.072
660.0	0.072
660.5	0.072
661.0	0.072
661.5	0.072
662.0	0.072
662.5	0.072
663.0	0.072
663.5	0.071
664.0	0.071
664.5	0.071
665.0	0.071
665.5	0.071
666.0	0.070
666.5	0.070
667.0	0.070
667.5	0.070
668.0	0.069
668.5	0.069
669.0	0.069
669.5	0.069
670.0	0.069
670.5	0.069
671.0	0.068
671.5	0.067
672.0	0.067
672.5	0.067
673.0	0.066
673.5	0.066
674.0	0.066
674.5	0.067
675.0	0.067
675.5	0.067
676.0	0.066
676.5	0.066
677.0	0.067
677.5	0.067
678.0	0.066
678.5	0.066
679.0	0.066
679.5	0.065
680.0	0.064
680.5	0.064
681.0	0.063
681.5	0.064
682.0	0.064
682.5	0.065
683.0	0.065
683.5	0.065
684.0	0.064
684.5	0.064
685.0	0.063
685.5	0.062
686.0	0.061
686.5	0.061
687.0	0.062
687.5	0.062
688.0	0.062
688.5	0.061
689.0	0.061
689.5	0.061
690.0	0.061
690.5	0.061
691.0	0.061
691.5	0.062
692.0	0.062
692.5	0.062
693.0	0.062
693.5	0.062
694.0	0.060
694.5	0.060
695.0	0.060
695.5	0.059
696.0	0.060
696.5	0.060
697.0	0.061
697.5	0.061
698.0	0.061
698.5	0.061
699.0	0.060
699.5	0.059
700.0	0.058
700.5	0.058
701.0	0.059
701.5	0.059
702.0	0.059
702.5	0.059
703.0	0.059
703.5	0.058
704.0	0.058
704.5	0.057
705.0	0.057
705.5	0.057
706.0	0.057
706.5	0.056
707.0	0.057
707.5	0.057
708.0	0.057
708.5	0.057
709.0	0.057
709.5	0.057
710.0	0.057
710.5	0.056
711.0	0.056
711.5	0.055
712.0	0.055
712.5	0.056
713.0	0.056
713.5	0.056
714.0	0.056
714.5	0.056
715.0	0.056
715.5	0.055
716.0	0.055
716.5	0.054
717.0	0.054
717.5	0.054
718.0	0.054
718.5	0.055
719.0	0.055
719.5	0.055
720.0	0.055
720.5	0.054
721.0	0.054
721.5	0.054
722.0	0.053
722.5	0.053
723.0	0.053
723.5	0.054
724.0	0.055
724.5	0.055
725.0	0.054
725.5	0.054
726.0	0.054
726.5	0.053
727.0	0.053
727.5	0.053
728.0	0.054
728.5	0.055
729.0	0.056
729.5	0.056
730.0	0.056
730.5	0.055
731.0	0.054
731.5	0.053
732.0	0.053
732.5	0.053
733.0	0.053
733.5	0.054
734.0	0.054
734.5	0.055
735.0	0.054
735.5	0.054
736.0	0.054
736.5	0.054
737.0	0.054
737.5	0.055
738.0	0.054
738.5	0.054
739.0	0.054
739.5	0.053
740.0	0.053
740.5	0.052
741.0	0.051
741.5	0.050
742.0	0.050
742.5	0.050
743.0	0.050
743.5	0.051
744.0	0.053
744.5	0.053
745.0	0.054
745.5	0.055
746.0	0.055
746.5	0.054
747.0	0.053
747.5	0.052
748.0	0.052
748.5	0.051
749.0	0.051
749.5	0.051
750.0	0.051
750.5	0.051
751.0	0.052
751.5	0.052
752.0	0.053
752.5	0.053
753.0	0.053
753.5	0.052
754.0	0.052
754.5	0.051
755.0	0.050
755.5	0.050
756.0	0.050
756.5	0.051
757.0	0.051
757.5	0.051
758.0	0.051
758.5	0.051
759.0	0.050
759.5	0.050
760.0	0.050
760.5	0.050
761.0	0.050
761.5	0.050
762.0	0.050
762.5	0.050
763.0	0.050
763.5	0.050
764.0	0.051
764.5	0.052
765.0	0.053
765.5	0.052
766.0	0.052
766.5	0.052
767.0	0.052
767.5	0.051
768.0	0.049
768.5	0.048
769.0	0.047
769.5	0.046
770.0	0.046
770.5	0.046
771.0	0.047
771.5	0.048
772.0	0.047
772.5	0.048
773.0	0.048
773.5	0.049
774.0	0.049
774.5	0.049
775.0	0.049
775.5	0.049
776.0	0.049
776.5	0.047
777.0	0.046
777.5	0.046
778.0	0.047
778.5	0.048
779.0	0.049
779.5	0.050
780.0	0.050
780.5	0.050
781.0	0.049
781.5	0.047
782.0	0.046
782.5	0.045
783.0	0.045
783.5	0.045
784.0	0.047
784.5	0.048
785.0	0.049
785.5	0.051
786.0	0.051
786.5	0.051
787.0	0.050
787.5	0.048
788.0	0.047
788.5	0.047
789.0	0.047
789.5	0.048
790.0	0.048
790.5	0.048
791.0	0.048
791.5	0.047
792.0	0.046
792.5	0.044
793.0	0.044
793.5	0.045
794.0	0.046
794.5	0.047
795.0	0.048
795.5	0.049
796.0	0.050
796.5	0.049
797.0	0.049
797.5	0.048
798.0	0.048
798.5	0.048
799.0	0.049
799.5	0.050
800.0	0.051
800.5	0.051
801.0	0.049
801.5	0.048
802.0	0.046
802.5	0.045
803.0	0.043
803.5	0.043
804.0	0.043
804.5	0.044
805.0	0.045
805.5	0.046
806.0	0.047
806.5	0.047
807.0	0.047
807.5	0.047
808.0	0.047
808.5	0.046
809.0	0.046
809.5	0.045
810.0	0.046
810.5	0.046
811.0	0.047
811.5	0.047
812.0	0.046
812.5	0.046
813.0	0.046
813.5	0.046
814.0	0.046
814.5	0.046
815.0	0.046
815.5	0.046
816.0	0.046
816.5	0.046
817.0	0.045
817.5	0.044
818.0	0.045
818.5	0.046
819.0	0.047
819.5	0.047
820.0	0.048
820.5	0.049
821.0	0.050
821.5	0.050
822.0	0.050
822.5	0.050
823.0	0.050
823.5	0.050
824.0	0.050
824.5	0.050
825.0	0.050
825.5	0.050
826.0	0.050
826.5	0.049
827.0	0.048
827.5	0.046
828.0	0.045
828.5	0.045
829.0	0.046
829.5	0.048
830.0	0.049
830.5	0.050
831.0	0.050
831.5	0.049
832.0	0.047
832.5	0.046
833.0	0.046
833.5	0.046
834.0	0.046
834.5	0.047
835.0	0.047
835.5	0.046
836.0	0.046
836.5	0.046
837.0	0.047
837.5	0.048
838.0	0.049
838.5	0.049
839.0	0.048
839.5	0.048
840.0	0.047
840.5	0.046
841.0	0.047
841.5	0.047
842.0	0.047
842.5	0.046
843.0	0.045
843.5	0.044
844.0	0.044
844.5	0.044
845.0	0.044
845.5	0.043
846.0	0.043
846.5	0.042
847.0	0.041
847.5	0.042
848.0	0.043
848.5	0.044
849.0	0.045
849.5	0.046
850.0	0.047


jsa8-2 #5 1
4/26/2018 2:27 PM
Wavelength (nm)	10mm Absorbance
//WLCalib: Shift 	0.09667	
//WLCalib: 261S 	-0.15000	
//WLCalib: 362S 	-0.12000	
//WLCalib: 484S 	0.11000	
//WLCalib: 529S 	0.18000	
//WLCalib: 823S 	-0.47000	
//QSpecEnd: 
190.0	0.037
190.5	0.001
191.0	-0.004
191.5	0.012
192.0	0.018
192.5	0.021
193.0	0.019
193.5	0.015
194.0	0.016
194.5	0.017
195.0	0.016
195.5	-0.002
196.0	0.011
196.5	0.013
197.0	0.013
197.5	0.011
198.0	0.007
198.5	0.000
199.0	0.004
199.5	0.005
200.0	0.002
200.5	-0.003
201.0	-0.004
201.5	-0.006
202.0	-0.006
202.5	-0.006
203.0	-0.005
203.5	-0.003
204.0	-0.001
204.5	0.003
205.0	0.000
205.5	0.000
206.0	0.000
206.5	0.001
207.0	-0.005
207.5	-0.001
208.0	0.005
208.5	0.009
209.0	0.012
209.5	0.014
210.0	0.014
210.5	0.012
211.0	0.009
211.5	0.003
212.0	-0.005
212.5	0.001
213.0	0.000
213.5	-0.001
214.0	0.000
214.5	0.000
215.0	0.000
215.5	0.000
216.0	0.000
216.5	0.000
217.0	0.000
217.5	0.000
218.0	0.000
218.5	-0.001
219.0	0.000
219.5	0.001
220.0	0.001
220.5	0.001
221.0	0.001
221.5	0.001
222.0	0.006
222.5	-0.003
223.0	-0.008
223.5	-0.004
224.0	0.000
224.5	0.003
225.0	0.005
225.5	0.007
226.0	0.008
226.5	0.012
227.0	0.010
227.5	-0.008
228.0	-0.007
228.5	-0.007
229.0	-0.007
229.5	-0.007
230.0	-0.006
230.5	-0.004
231.0	-0.001
231.5	0.004
232.0	0.000
232.5	0.000
233.0	0.001
233.5	-0.011
234.0	0.003
234.5	0.014
235.0	0.022
235.5	0.027
236.0	0.024
236.5	0.026
237.0	0.025
237.5	0.019
238.0	0.008
238.5	-0.001
239.0	0.008
239.5	0.006
240.0	0.004
240.5	0.000
241.0	-0.003
241.5	0.000
242.0	0.000
242.5	0.000
243.0	0.000
243.5	-0.001
244.0	-0.003
244.5	0.002
245.0	0.007
245.5	0.010
246.0	0.012
246.5	0.012
247.0	0.011
247.5	0.009
248.0	0.005
248.5	-0.001
249.0	-0.003
249.5	0.000
250.0	0.000
250.5	0.000
251.0	0.000
251.5	0.003
252.0	0.001
252.5	-0.017
253.0	-0.013
253.5	0.008
254.0	0.025
254.5	0.036
255.0	0.043
255.5	0.045
256.0	0.041
256.5	0.042
257.0	0.015
257.5	-0.023
258.0	-0.018
258.5	-0.019
259.0	-0.021
259.5	-0.020
260.0	-0.018
260.5	-0.012
261.0	-0.004
261.5	0.008
262.0	0.000
262.5	-0.004
263.0	-0.003
263.5	0.005
264.0	0.011
264.5	0.015
265.0	0.017
265.5	0.017
266.0	0.015
266.5	0.011
267.0	0.005
267.5	-0.005
268.0	-0.002
268.5	0.000
269.0	0.000
269.5	0.000
270.0	0.000
270.5	0.000
271.0	0.000
271.5	0.001
272.0	-0.005
272.5	0.002
273.0	0.004
273.5	0.005
274.0	0.006
274.5	0.006
275.0	0.005
275.5	0.004
276.0	0.002
276.5	-0.001
277.0	-0.005
277.5	0.002
278.0	0.000
278.5	0.000
279.0	0.000
279.5	0.000
280.0	-0.002
280.5	-0.006
281.0	0.004
281.5	0.003
282.0	0.009
282.5	0.015
283.0	0.026
283.5	0.059
284.0	0.113
284.5	0.203
285.0	0.305
285.5	0.408
286.0	0.493
286.5	0.566
287.0	0.625
287.5	0.650
288.0	0.665
288.5	0.676
289.0	0.688
289.5	0.693
290.0	0.694
290.5	0.676
291.0	0.647
291.5	0.636
292.0	0.622
292.5	0.614
293.0	0.617
293.5	0.623
294.0	0.632
294.5	0.635
295.0	0.649
295.5	0.654
296.0	0.657
296.5	0.658
297.0	0.662
297.5	0.661
298.0	0.659
298.5	0.659
299.0	0.659
299.5	0.657
300.0	0.657
300.5	0.656
301.0	0.655
301.5	0.654
302.0	0.653
302.5	0.650
303.0	0.648
303.5	0.647
304.0	0.646
304.5	0.645
305.0	0.646
305.5	0.644
306.0	0.643
306.5	0.641
307.0	0.639
307.5	0.636
308.0	0.633
308.5	0.633
309.0	0.632
309.5	0.631
310.0	0.629
310.5	0.628
311.0	0.626
311.5	0.624
312.0	0.623
312.5	0.621
313.0	0.619
313.5	0.617
314.0	0.617
314.5	0.616
315.0	0.614
315.5	0.612
316.0	0.610
316.5	0.609
317.0	0.608
317.5	0.606
318.0	0.605
318.5	0.605
319.0	0.606
319.5	0.604
320.0	0.601
320.5	0.598
321.0	0.596
321.5	0.595
322.0	0.593
322.5	0.592
323.0	0.593
323.5	0.593
324.0	0.592
324.5	0.590
325.0	0.589
325.5	0.588
326.0	0.587
326.5	0.586
327.0	0.584
327.5	0.583
328.0	0.582
328.5	0.581
329.0	0.580
329.5	0.579
330.0	0.578
330.5	0.577
331.0	0.576
331.5	0.574
332.0	0.574
332.5	0.572
333.0	0.571
333.5	0.571
334.0	0.570
334.5	0.569
335.0	0.569
335.5	0.568
336.0	0.567
336.5	0.567
337.0	0.566
